Detailed Percentile spectrum:
     Value   Percentile   TotalCount 1/(1-Percentile)

     0.163     0.000000            2         1.00
     1.212     0.100000     15012435         1.11
     1.638     0.200000     29971867         1.25
     2.083     0.300000     44994362         1.43
     2.549     0.400000     59976135         1.67
     3.023     0.500000     74917547         2.00
     3.285     0.550000     82411108         2.22
     3.555     0.600000     89896445         2.50
     3.831     0.650000     97428029         2.86
     4.119     0.700000    104886044         3.33
     4.391     0.750000    112364918         4.00
     4.523     0.775000    116198336         4.44
     4.651     0.800000    119851683         5.00
     4.787     0.825000    123642875         5.71
     4.927     0.850000    127381344         6.67
     5.083     0.875000    131143516         8.00
     5.175     0.887500    133024648         8.89
     5.283     0.900000    134866894        10.00
     5.415     0.912500    136737894        11.43
     5.575     0.925000    138584691        13.33
     5.759     0.937500    140463673        16.00
     5.859     0.943750    141415585        17.78
     5.963     0.950000    142346548        20.00
     6.075     0.956250    143264733        22.86
     6.207     0.962500    144220309        26.67
     6.359     0.968750    145138792        32.00
     6.447     0.971875    145612665        35.56
     6.547     0.975000    146074381        40.00
     6.671     0.978125    146539625        45.71
     6.827     0.981250    147012630        53.33
     7.023     0.984375    147480836        64.00
     7.131     0.985938    147714478        71.11
     7.247     0.987500    147941896        80.00
     7.391     0.989062    148179626        91.43
     7.559     0.990625    148413976       106.67
     7.715     0.992188    148644243       128.00
     7.795     0.992969    148764950       142.22
     7.879     0.993750    148878601       160.00
     7.971     0.994531    148994953       182.86
     8.075     0.995313    149113457       213.33
     8.215     0.996094    149233795       256.00
     8.295     0.996484    149288660       284.44
     8.391     0.996875    149347123       320.00
     8.495     0.997266    149408840       365.71
     8.599     0.997656    149465688       426.67
     8.711     0.998047    149524496       512.00
     8.767     0.998242    149553006       568.89
     8.831     0.998437    149581268       640.00
     8.903     0.998633    149610067       731.43
     8.991     0.998828    149640704       853.33
     9.087     0.999023    149669994      1024.00
     9.135     0.999121    149684637      1137.78
     9.191     0.999219    149698227      1280.00
     9.255     0.999316    149712845      1462.86
     9.327     0.999414    149726994      1706.67
     9.407     0.999512    149741427      2048.00
     9.463     0.999561    149749453      2275.56
     9.511     0.999609    149756241      2560.00
     9.575     0.999658    149763487      2925.71
     9.655     0.999707    149770867      3413.33
     9.743     0.999756    149777678      4096.00
     9.799     0.999780    149781280      4551.11
     9.855     0.999805    149785242      5120.00
     9.911     0.999829    149788898      5851.43
     9.975     0.999854    149792627      6826.67
    10.055     0.999878    149796217      8192.00
    10.087     0.999890    149798138      9102.22
    10.127     0.999902    149799715     10240.00
    10.175     0.999915    149801392     11702.86
    10.247     0.999927    149803321     13653.33
    10.351     0.999939    149805084     16384.00
    10.407     0.999945    149805968     18204.44
    10.455     0.999951    149806875     20480.00
    10.543     0.999957    149807780     23405.71
    10.663     0.999963    149808723     27306.67
    10.775     0.999969    149809686     32768.00
    10.799     0.999973    149810071     36408.89
    10.847     0.999976    149810532     40960.00
    10.895     0.999979    149811053     46811.43
    10.951     0.999982    149811439     54613.33
    11.031     0.999985    149811980     65536.00
    11.055     0.999986    149812129     72817.78
    11.111     0.999988    149812402     81920.00
    11.151     0.999989    149812607     93622.86
    11.191     0.999991    149812808    109226.67
    11.279     0.999992    149813061    131072.00
    11.303     0.999993    149813171    145635.56
    11.335     0.999994    149813284    163840.00
    11.423     0.999995    149813381    187245.71
    11.479     0.999995    149813515    218453.33
    11.527     0.999996    149813628    262144.00
    11.535     0.999997    149813664    291271.11
    11.559     0.999997    149813724    327680.00
    11.719     0.999997    149813788    374491.43
    11.895     0.999998    149813840    436906.67
    11.951     0.999998    149813893    524288.00
    11.975     0.999998    149813929    582542.22
    11.983     0.999998    149813950    655360.00
    12.031     0.999999    149813981    748982.86
    12.047     0.999999    149814021    873813.33
    12.063     0.999999    149814040   1048576.00
    12.151     0.999999    149814059   1165084.44
    12.159     0.999999    149814081   1310720.00
    12.159     0.999999    149814081   1497965.71
    12.167     0.999999    149814099   1747626.67
    12.183     1.000000    149814123   2097152.00
    12.183     1.000000    149814123   2330168.89
    12.183     1.000000    149814123   2621440.00
    12.191     1.000000    149814144   2995931.43
    12.191     1.000000    149814144   3495253.33
    12.191     1.000000    149814144   4194304.00
    12.199     1.000000    149814162   4660337.78
    12.199     1.000000    149814162   5242880.00
    12.199     1.000000    149814162   5991862.86
    12.199     1.000000    149814162   6990506.67
    12.199     1.000000    149814162   8388608.00
    12.199     1.000000    149814162   9320675.55
    12.207     1.000000    149814168  10485760.00
    12.207     1.000000    149814168  11983725.71
    12.207     1.000000    149814168  13981013.34
    12.615     1.000000    149814174  16777216.00
    12.615     1.000000    149814174  18641351.10
    12.615     1.000000    149814174  20971519.98
    12.615     1.000000    149814174  23967451.45
    12.615     1.000000    149814174  27962026.68
    12.615     1.000000    149814174  33554432.00
    12.615     1.000000    149814174  37282702.28
    12.623     1.000000    149814178  41943039.96
    12.623     1.000000    149814178          inf
#[Mean    =        3.194, StdDeviation   =        1.615]
#[Max     =       12.616, Total count    =    149814178]
#[Buckets =           27, SubBuckets     =         2048]
