Detailed Percentile spectrum:
     Value   Percentile   TotalCount 1/(1-Percentile)

     0.095     0.000000            1         1.00
     1.099     0.100000    290018273         1.11
     1.404     0.200000    580688740         1.25
     1.669     0.300000    869983524         1.43
     1.944     0.400000   1160620550         1.67
     2.257     0.500000   1450211975         2.00
     2.441     0.550000   1596270106         2.22
     2.649     0.600000   1739963632         2.50
     2.897     0.650000   1885515199         2.86
     3.193     0.700000   2030529971         3.33
     3.553     0.750000  -2119829209         4.00
     3.769     0.775000  -2047472855         4.44
     4.017     0.800000  -1974886427         5.00
     4.303     0.825000  -1902441701         5.71
     4.643     0.850000  -1829676646         6.67
     5.063     0.875000  -1757327369         8.00
     5.319     0.887500  -1720917415         8.89
     5.623     0.900000  -1684678063        10.00
     6.007     0.912500  -1648660698        11.43
     6.559     0.925000  -1612534396        13.33
     7.599     0.937500  -1576284398        16.00
     8.887     0.943750  -1558218210        17.78
    26.831     0.950000  -1540095147        20.00
   228.479     0.956250  -1521970711        22.86
   571.391     0.962500  -1503840383        26.67
   974.335     0.968750  -1485721815        32.00
  1199.103     0.971875  -1476659471        35.56
  1432.575     0.975000  -1467571548        40.00
  1702.911     0.978125  -1458537185        45.71
  1993.727     0.981250  -1449464150        53.33
  2320.383     0.984375  -1440364858        64.00
  2471.935     0.985938  -1435836331        71.11
  2635.775     0.987500  -1431299279        80.00
  2875.391     0.989062  -1426789159        91.43
  3137.535     0.990625  -1422271547       106.67
  3487.743     0.992188  -1417749031       128.00
  3655.679     0.992969  -1415483902       142.22
  3846.143     0.993750  -1413225542       160.00
  4087.807     0.994531  -1410959732       182.86
  4358.143     0.995313  -1408651023       213.33
  4579.327     0.996094  -1406390042       256.00
  4734.975     0.996484  -1405292024       284.44
  4907.007     0.996875  -1404138078       320.00
  5050.367     0.997266  -1403005904       365.71
  5267.455     0.997656  -1401879334       426.67
  5500.927     0.998047  -1400757870       512.00
  5668.863     0.998242  -1400195488       568.89
  5861.375     0.998437  -1399624875       640.00
  6045.695     0.998633  -1399059522       731.43
  6221.823     0.998828  -1398498906       853.33
  6426.623     0.999023  -1397926116      1024.00
  6549.503     0.999121  -1397650503      1137.78
  6668.287     0.999219  -1397361254      1280.00
  6811.647     0.999316  -1397082683      1462.86
  7008.255     0.999414  -1396797522      1706.67
  7196.671     0.999512  -1396515468      2048.00
  7266.303     0.999561  -1396376844      2275.56
  7311.359     0.999609  -1396234259      2560.00
  7389.183     0.999658  -1396092972      2925.71
  7495.679     0.999707  -1395952509      3413.33
  7606.271     0.999756  -1395805755      4096.00
  7639.039     0.999780  -1395732558      4551.11
  7712.767     0.999805  -1395668767      5120.00
  7806.975     0.999829  -1395596571      5851.43
  7876.607     0.999854  -1395526481      6826.67
  7962.623     0.999878  -1395456820      8192.00
  8073.215     0.999890  -1395422210      9102.22
  8187.903     0.999902  -1395386537     10240.00
  8302.591     0.999915  -1395351518     11702.86
  8413.183     0.999927  -1395313813     13653.33
  8519.679     0.999939  -1395279722     16384.00
  8577.023     0.999945  -1395263355     18204.44
  8642.559     0.999951  -1395244848     20480.00
  8699.903     0.999957  -1395226158     23405.71
  8765.439     0.999963  -1395209889     27306.67
  8839.167     0.999969  -1395192516     32768.00
  8863.743     0.999973  -1395178035     36408.89
  8871.935     0.999976  -1395174911     40960.00
  8896.511     0.999979  -1395164722     46811.43
  8912.895     0.999982  -1395157451     54613.33
  8937.471     0.999985  -1395142883     65536.00
  8937.471     0.999986  -1395142883     72817.78
  8953.855     0.999988  -1395129753     81920.00
  8953.855     0.999989  -1395129753     93622.86
  8953.855     0.999991  -1395129753    109226.67
  8962.047     0.999992  -1395115169    131072.00
  8962.047     0.999993  -1395115169    145635.56
  8962.047     0.999994  -1395115169    163840.00
  8962.047     0.999995  -1395115169    187245.71
  8962.047     0.999995  -1395115169    218453.33
  8962.047     0.999996  -1395115169    262144.00
  8970.239     0.999997  -1395108950    291271.11
  8970.239     0.999997  -1395108950    327680.00
  8970.239     0.999997  -1395108950    374491.43
  8970.239     0.999998  -1395108950    436906.67
  8970.239     0.999998  -1395108950    524288.00
  8970.239     0.999998  -1395108950    582542.22
  8978.431     0.999998  -1395104475    655360.00
  8978.431     1.000000  -1395104475          inf
#[Mean    =       95.394, StdDeviation   =      545.837]
#[Max     =     8970.240, Total count    =   2899862821]
#[Buckets =           27, SubBuckets     =         2048]
